Time [min.]:	UV [A.U.]:	Conductivity [mS/cm]:			
0,000	-0,2231	0,49			
0,017	-0,1903	0,49			
0,033	-0,1725	0,49			
0,050	-0,1854	0,47			
0,067	-0,2029	0,49			
0,083	-0,2146	0,49			
0,100	-0,2204	0,49			
0,117	-0,2235	0,49			
0,133	-0,2251	0,49			
0,150	-0,2053	0,49			
0,167	0,0628	0,49			
0,183	0,3344	0,49			
0,200	0,4214	0,47			
0,217	0,4120	0,47			
0,233	0,4028	0,49			
0,250	0,3884	0,47			
0,267	0,3718	0,47			
0,283	0,3540	4,34			
0,300	0,3377	14,10			
0,317	0,3274	17,73			
0,333	0,3195	18,84			
0,350	0,3063	19,35			
0,367	0,2898	19,70			
0,383	0,2750	19,92			
0,400	0,2556	20,14			
0,417	0,2312	20,34			
0,433	0,2105	20,56			
0,450	0,1892	20,78			
0,467	0,1664	20,91			
0,483	0,1387	20,99			
0,500	0,1060	21,06			
0,517	0,0749	21,16			
0,533	0,0448	21,21			
0,550	0,0108	21,21			
0,567	-0,0269	21,21			
0,583	-0,0604	21,18			
0,600	-0,0904	21,11			
0,617	-0,1158	21,04			
0,633	-0,1357	20,94			
0,650	-0,1525	20,89			
0,667	-0,1656	20,81			
0,683	-0,1771	20,72			
0,700	-0,1863	20,62			
0,717	-0,1922	20,49			
0,733	-0,1970	20,37			
0,750	-0,2014	20,25			
0,767	-0,2058	20,15			
0,783	-0,2085	20,05			
0,800	-0,2101	19,95			
0,817	-0,2120	19,85			
0,833	-0,2140	19,75			
0,850	-0,2155	19,67			
0,867	-0,2164	19,57			
0,883	-0,2169	19,47			
0,900	-0,2173	19,37			
0,917	-0,2172	19,32			
0,933	-0,2165	19,23			
0,950	-0,2152	19,13			
0,967	-0,2141	19,05			
0,983	-0,2121	18,95			
1,000	-0,2103	18,86			
1,017	-0,2081	18,76			
1,033	-0,2062	18,70			
1,050	-0,2051	18,61			
1,067	-0,2052	18,53			
1,083	-0,2055	18,43			
1,100	-0,2066	18,34			
1,117	-0,2084	18,26			
1,133	-0,2107	18,22			
1,150	-0,2134	18,17			
1,167	-0,2166	18,14			
1,183	-0,2193	18,11			
1,200	-0,2213	18,00			
1,217	-0,2229	17,90			
1,233	-0,2241	17,82			
1,250	-0,2248	17,77			
1,267	-0,2254	17,74			
1,283	-0,2260	17,63			
1,300	-0,2263	17,58			
1,317	-0,2260	17,51			
1,333	-0,2254	17,43			
1,350	-0,2244	17,36			
1,367	-0,2226	17,29			
1,383	-0,2202	17,24			
1,400	-0,2172	17,18			
1,417	-0,2136	17,11			
1,433	-0,2098	17,05			
1,450	-0,2061	17,00			
1,467	-0,2030	16,97			
1,483	-0,2008	16,89			
1,500	-0,1997	16,80			
1,517	-0,1999	16,73			
1,533	-0,2012	16,70			
1,550	-0,2038	16,63			
1,567	-0,2072	16,60			
1,583	-0,2110	16,55			
1,600	-0,2145	16,51			
1,617	-0,2175	16,46			
1,633	-0,2201	16,38			
1,650	-0,2221	16,29			
1,667	-0,2234	16,18			
1,683	-0,2239	16,12			
1,700	-0,2235	16,07			
1,717	-0,2215	15,98			
1,733	-0,2173	15,91			
1,750	-0,2107	15,88			
1,767	-0,2022	15,81			
1,783	-0,1932	15,78			
1,800	-0,1851	15,73			
1,817	-0,1789	15,64			
1,833	-0,1756	15,58			
1,850	-0,1756	15,57			
1,867	-0,1789	15,54			
1,883	-0,1845	15,48			
1,900	-0,1910	15,42			
1,917	-0,1973	15,35			
1,933	-0,2029	15,26			
1,950	-0,2073	15,25			
1,967	-0,2106	15,21			
1,983	-0,2131	15,16			
2,000	-0,2152	15,10			
2,017	-0,2172	15,04			
2,033	-0,2190	15,01			
2,050	-0,2205	14,99			
2,067	-0,2217	14,94			
2,083	-0,2228	14,86			
2,100	-0,2237	14,79			
2,117	-0,2243	14,77			
2,133	-0,2249	14,71			
2,150	-0,2254	14,62			
2,167	-0,2259	14,55			
2,183	-0,2261	14,53			
2,200	-0,2263	14,46			
2,217	-0,2264	14,39			
2,233	-0,2266	14,36			
2,250	-0,2267	14,31			
2,267	-0,2267	14,26			
2,283	-0,2266	14,22			
2,300	-0,2265	14,15			
2,317	-0,2263	14,10			
2,333	-0,2258	14,07			
2,350	-0,2250	13,97			
2,367	-0,2238	13,90			
2,383	-0,2224	13,83			
2,400	-0,2210	13,76			
2,417	-0,2198	13,71			
2,433	-0,2192	13,70			
2,450	-0,2191	13,67			
2,467	-0,2197	13,60			
2,483	-0,2207	13,57			
2,500	-0,2217	13,50			
2,517	-0,2225	13,41			
2,533	-0,2231	13,36			
2,550	-0,2235	13,31			
2,567	-0,2238	13,26			
2,583	-0,2241	13,18			
2,600	-0,2244	13,16			
2,617	-0,2247	13,13			
2,633	-0,2249	13,04			
2,650	-0,2252	12,96			
2,667	-0,2255	12,89			
2,683	-0,2257	12,84			
2,700	-0,2258	12,80			
2,717	-0,2258	12,72			
2,733	-0,2254	12,65			
2,750	-0,2244	12,58			
2,767	-0,2229	12,55			
2,783	-0,2210	12,53			
2,800	-0,2193	12,48			
2,817	-0,2183	12,39			
2,833	-0,2181	12,33			
2,850	-0,2186	12,26			
2,867	-0,2195	12,21			
2,883	-0,2203	12,12			
2,900	-0,2209	12,04			
2,917	-0,2215	11,95			
2,933	-0,2220	11,89			
2,950	-0,2225	11,82			
2,967	-0,2230	11,80			
2,983	-0,2233	11,77			
3,000	-0,2236	11,68			
3,017	-0,2236	11,61			
3,033	-0,2233	11,55			
3,050	-0,2226	11,48			
3,067	-0,2214	11,43			
3,083	-0,2198	11,39			
3,100	-0,2183	11,34			
3,117	-0,2174	11,29			
3,133	-0,2172	11,27			
3,150	-0,2177	11,20			
3,167	-0,2184	11,13			
3,183	-0,2190	11,04			
3,200	-0,2197	11,03			
3,217	-0,2202	11,00			
3,233	-0,2206	10,93			
3,250	-0,2207	10,84			
3,267	-0,2203	10,77			
3,283	-0,2194	10,71			
3,300	-0,2180	10,62			
3,317	-0,2167	10,57			
3,333	-0,2160	10,52			
3,350	-0,2159	10,43			
3,367	-0,2162	10,35			
3,383	-0,2167	10,25			
3,400	-0,2171	10,14			
3,417	-0,2171	10,08			
3,433	-0,2163	10,01			
3,450	-0,2152	9,92			
3,467	-0,2141	9,84			
3,483	-0,2135	9,74			
3,500	-0,2135	9,63			
3,517	-0,2136	9,53			
3,533	-0,2135	9,41			
3,550	-0,2128	9,31			
3,567	-0,2119	9,23			
3,583	-0,2115	9,11			
3,600	-0,2112	9,00			
3,617	-0,2107	8,90			
3,633	-0,2101	8,80			
3,650	-0,2097	8,70			
3,667	-0,2094	8,60			
3,683	-0,2089	8,49			
3,700	-0,2084	8,41			
3,717	-0,2082	8,31			
3,733	-0,2079	8,22			
3,750	-0,2076	8,14			
3,767	-0,2074	8,05			
3,783	-0,2073	7,98			
3,800	-0,2073	7,88			
3,817	-0,2073	7,80			
3,833	-0,2074	7,71			
3,850	-0,2075	7,61			
3,867	-0,2079	7,52			
3,883	-0,2090	7,46			
3,900	-0,2106	7,40			
3,917	-0,2118	7,35			
3,933	-0,2127	7,30			
3,950	-0,2135	7,27			
3,967	-0,2141	7,20			
3,983	-0,2146	7,17			
4,000	-0,2149	7,13			
4,017	-0,2151	7,08			
4,033	-0,2153	7,06			
4,050	-0,2155	7,03			
4,067	-0,2157	7,01			
4,083	-0,2160	7,00			
4,100	-0,2162	6,96			
4,117	-0,2164	6,94			
4,133	-0,2166	6,93			
4,150	-0,2167	6,93			
4,167	-0,2169	6,91			
4,183	-0,2170	6,88			
4,200	-0,2170	6,88			
4,217	-0,2171	6,88			
4,233	-0,2172	6,84			
4,250	-0,2172	6,81			
4,267	-0,2173	6,81			
4,283	-0,2173	6,84			
4,300	-0,2173	6,83			
4,317	-0,2174	6,77			
4,333	-0,2174	6,74			
4,350	-0,2174	6,77			
4,367	-0,2174	6,76			
4,383	-0,2175	6,81			
4,400	-0,2175	6,84			
4,417	-0,2175	6,88			
4,433	-0,2176	6,88			
4,450	-0,2176	6,84			
4,467	-0,2176	6,81			
4,483	-0,2176	6,77			
4,500	-0,2175	6,74			
4,517	-0,2175	6,72			
4,533	-0,2175	6,71			
